File: XPS-Cr2p.csv
Point6
3
Cr2p
1
606.7517,1984.71
606.5017,1983.72
606.2517,1972.07
606.0017,1966.33
605.7517,1970.48
605.5017,1967.24
605.2517,1971.97
605.0017,1980.51
604.7517,1975.78
604.5017,1977.86
604.2517,1987.05
604.0017,1986.72
603.7517,1988.9
603.5017,1976.32
603.2517,1966.12
603.0017,1965.11
602.7517,1968.58
602.5017,1976.53
602.2517,1973.28
602.0017,1965.1
601.7517,1969.71
601.5017,1964.02
601.2517,1961.83
601.0017,1971.92
600.7517,1960.21
600.5017,1959.97
600.2517,1965.99
600.0017,1959.43
599.7517,1955.98
599.5017,1968.37
599.2517,1975.26
599.0017,1968.96
598.7517,1973.19
598.5017,1969.32
598.2517,1974.96
598.0017,1976.62
597.7517,1986.38
597.5017,1989.73
597.2517,1964.05
597.0017,1958.48
596.7517,1956.24
596.5017,1950.01
596.2517,1964.19
596.0017,1975.33
595.7517,1962.49
595.5017,1948.57
595.2517,1950.95
595.0017,1945.71
594.7517,1939.25
594.5017,1939.93
594.2517,1949.45
594.0017,1950.35
593.7517,1948.08
593.5017,1940.03
593.2517,1934.89
593.0017,1943.18
592.7517,1931.5
592.5017,1928.44
592.2517,1941.27
592.0017,1955.12
591.7517,1952.04
591.5017,1941.11
591.2517,1955.28
591.0017,1945.52
590.7517,1949.12
590.5017,1949.34
590.2517,1952.68
590.0017,1965.52
589.7517,1961.33
589.5017,1975.35
589.2517,1973.46
589.0017,1978.12
588.7517,1987.13
588.5017,2000.62
588.2517,1998.75
588.0017,2003.45
587.7517,2020.16
587.5017,2032.44
587.2517,2044.86
587.0017,2038.62
586.7517,2049.49
586.5017,2063.68
586.2517,2052.19
586.0017,2020.7
585.7517,2025.51
585.5017,2027.27
585.2517,1992.45
585.0017,1963.31
584.7517,1936.95
584.5017,1941.02
584.2517,1948.37
584.0017,1938.45
583.7517,1915.62
583.5017,1918.88
583.2517,1922.06
583.0017,1915.31
582.7517,1920.18
582.5017,1912.6
582.2517,1914.3
582.0017,1923.82
581.7517,1922.73
581.5017,1922.11
581.2517,1910.88
581.0017,1923.52
580.7517,1941.47
580.5017,1935.39
580.2517,1928.12
580.0017,1937.77
579.7517,1933.65
579.5017,1940.81
579.2517,1966.96
579.0017,1972.49
578.7517,1989.9
578.5017,1995
578.2517,2021.34
578.0017,2056.83
577.7517,2070.97
577.5017,2089.07
577.2517,2118.27
577.0017,2129.11
576.7517,2122.27
576.5017,2114.11
576.2517,2093.85
576.0017,2078.31
575.7517,2046.38
575.5017,1986.12
575.2517,1946.22
575.0017,1908.62
574.7517,1884.23
574.5017,1885.28
574.2517,1886.89
574.0017,1875.83
573.7517,1861.69
573.5017,1860.12
573.2517,1852.78
573.0017,1865.92
572.7517,1862.55
572.5017,1847.15
572.2517,1847.43
572.0017,1851.59
571.7517,1853.03
571.5017,1858.09
571.2517,1845.87
571.0017,1842.23
570.7517,1848.39
570.5017,1846.4
570.2517,1841.17
570.0017,1837.51
569.7517,1849.75
569.5017,1844.78
569.2517,1840.62
569.0017,1842.26
568.7517,1843.52
568.5017,1852.43
568.2517,1842.79
568.0017,1834.66
567.7517,1850.93
567.5017,1848.14
567.2517,1834.12
567.0017,1841.56
566.8767,1856.33