File: XPS-F1s.csv
Point6
3
F1s
1
699.8767,3443.33
699.7517,3399.05
699.6267,3347.86
699.5017,3343.97
699.3767,3336.83
699.2517,3263.02
699.1267,3170.32
699.0017,3115.08
698.8767,3091.27
698.7517,3104.84
698.6267,3128.97
698.5017,3103.49
698.3767,3055.95
698.2517,3014.76
698.1267,3017.54
698.0017,3028.57
697.8767,3056.59
697.7517,3067.46
697.6267,3092.94
697.5017,3081.83
697.3767,3071.51
697.2517,3045.08
697.1267,2979.44
697.0017,2910.4
696.8767,2900.56
696.7517,2899.84
696.6267,2891.59
696.5017,2910.71
696.3767,2906.03
696.2517,2878.1
696.1267,2834.44
696.0017,2816.98
695.8767,2774.76
695.7517,2739.92
695.6267,2713.97
695.5017,2704.92
695.3767,2677.22
695.2517,2687.06
695.1267,2683.57
695.0017,2649.13
694.8767,2596.43
694.7517,2596.67
694.6267,2610.56
694.5017,2621.98
694.3767,2621.67
694.2517,2590.4
694.1267,2591.51
694.0017,2629.13
693.8767,2688.41
693.7517,2716.83
693.6267,2746.51
693.5017,2723.81
693.3767,2689.36
693.2517,2702.38
693.1267,2753.1
693.0017,2840.56
692.8767,2958.49
692.7517,3076.67
692.6267,3173.81
692.5017,3296.83
692.3767,3486.75
692.2517,3712.86
692.1267,3889.6
692.0017,4155.87
691.8767,4490.63
691.7517,4866.03
691.6267,5425.24
691.5017,6022.54
691.3767,6696.35
691.2517,7565
691.1267,8580.08
691.0017,9801.67
690.8767,11351.7
690.7517,13115.6
690.6267,15223.7
690.5017,17653.6
690.3767,20288.3
690.2517,23263.6
690.1267,26766.5
690.0017,30437.9
689.8767,34367.7
689.7517,38591.1
689.6267,42837.5
689.5017,46791.5
689.3767,50569.3
689.2517,53878.3
689.1267,56474
689.0017,58291.6
688.8767,59119.9
688.7517,58546.5
688.6267,56915.6
688.5017,54340.6
688.3767,50932.4
688.2517,46666.1
688.1267,41905.5
688.0017,36851.8
687.8767,32000.7
687.7517,27336.7
687.6267,23180.8
687.5017,19465.5
687.3767,16217.5
687.2517,13575.3
687.1267,11470.9
687.0017,9709.36
686.8767,8311.75
686.7517,7300
686.6267,6448.65
686.5017,5873.02
686.3767,5363.65
686.2517,4928.73
686.1267,4576.03
686.0017,4305.08
685.8767,4056.19
685.7517,3851.27
685.6267,3752.54
685.5017,3700.24
685.3767,3635.95
685.2517,3543.81
685.1267,3416.83
685.0017,3228.25
684.8767,3122.7
684.7517,3015.4
684.6267,2921.59
684.5017,2839.36
684.3767,2738.89
684.2517,2672.3
684.1267,2629.84
684.0017,2560.4
683.8767,2493.49
683.7517,2429.52
683.6267,2319.92
683.5017,2297.38
683.3767,2330.56
683.2517,2305.63
683.1267,2273.65
683.0017,2218.57
682.8767,2115.87
682.7517,2090.24
682.6267,2108.25
682.5017,2088.81
682.3767,2083.17
682.2517,2090.71
682.1267,2099.13
682.0017,2105.95
681.8767,2065.87
681.7517,2020.63
681.6267,1991.9
681.5017,1985.79
681.3767,2034.44
681.2517,2020.4
681.1267,2010.63
681.0017,2020
680.8767,2026.03
680.7517,2012.78
680.6267,2033.89
680.5017,1963.81
680.3767,1966.59
680.2517,1959.29
680.1267,1961.11
680.0017,2008.02
679.8767,2045

Point6
3
Fe2p
1
739.7517,7440.27
739.5017,7453.71
739.2517,7456.88
739.0017,7464.33
738.7517,7471.95
738.5017,7467.92
738.2517,7466.49
738.0017,7470.19
737.7517,7442.53
737.5017,7427.74
737.2517,7459.65
737.0017,7464.52
736.7517,7437.76
736.5017,7460.75
736.2517,7448.78
736.0017,7442.01
735.7517,7439.24
735.5017,7422.3
735.2517,7438.01
735.0017,7417.87
734.7517,7396.56
734.5017,7389.75
734.2517,7374.55
734.0017,7370.69
733.7517,7357.03
733.5017,7329.25
733.2517,7304.75
733.0017,7301.35
732.7517,7299.84
732.5017,7287.72
732.2517,7259.15
732.0017,7231.21
731.7517,7227.96
731.5017,7203.12
731.2517,7190.5
731.0017,7169.22
730.7517,7179.75
730.5017,7178.13
730.2517,7155.77
730.0017,7150.13
729.7517,7132.3
729.5017,7138.32
729.2517,7127.69
729.0017,7122.63
728.7517,7130.88
728.5017,7170.77
728.2517,7197.69
728.0017,7202.43
727.7517,7232.9
727.5017,7243.65
727.2517,7272.54
727.0017,7328.46
726.7517,7346.03
726.5017,7373.04
726.2517,7403.25
726.0017,7428.31
725.7517,7477.56
725.5017,7504.8
725.2517,7524.6
725.0017,7561.05
724.7517,7584.08
724.5017,7598.59
724.2517,7604.25
724.0017,7579.75
723.7517,7568.82
723.5017,7588.99
723.2517,7574.02
723.0017,7562.2
722.7517,7560.57
722.5017,7565.71
722.2517,7591.9
722.0017,7592.02
721.7517,7601.46
721.5017,7622.16
721.2517,7657.68
721.0017,7693.24
720.7517,7716.53
720.5017,7751.72
720.2517,7767.79
720.0017,7773.62
719.7517,7806.73
719.5017,7794.99
719.2517,7792.51
719.0017,7799.56
718.7517,7780.87
718.5017,7778.21
718.2517,7756.11
718.0017,7708.64
717.7517,7684.56
717.5017,7688.25
717.2517,7677.48
717.0017,7668.93
716.7517,7662.92
716.5017,7653.14
716.2517,7671.65
716.0017,7665.58
715.7517,7659.29
715.5017,7669.34
715.2517,7651.61
715.0017,7652.65
714.7517,7659.46
714.5017,7671.09
714.2517,7710.01
714.0017,7705.48
713.7517,7711.22
713.5017,7751.15
713.2517,7776.73
713.0017,7811.33
712.7517,7834.39
712.5017,7890.02
712.2517,7943.75
712.0017,7953.38
711.7517,7987.94
711.5017,7998.21
711.2517,7989.37
711.0017,7963.17
710.7517,7890.19
710.5017,7794.92
710.2517,7659.91
710.0017,7482.59
709.7517,7290.26
709.5017,7093.62
709.2517,6876.52
709.0017,6685.14
708.7517,6535.63
708.5017,6383.79
708.2517,6248.73
708.0017,6129.89
707.7517,6038.6
707.5017,5944.73
707.2517,5861.2
707.0017,5808.77
706.7517,5748.11
706.5017,5705.04
706.2517,5676.74
706.0017,5621.25
705.7517,5561.02
705.5017,5488.52
705.2517,5401.83
705.0017,5333.56
704.7517,5231.31
704.5017,5119.82
704.2517,5010.4
704.0017,4909.1
703.7517,4815.46
703.5017,4674.19
703.2517,4561.78
703.0017,4479.84
702.7517,4397.69
702.5017,4317.95
702.2517,4236.09
702.0017,4155.41
701.7517,4086.42
701.5017,4029.54
701.2517,3961.59
701.0017,3878.49
700.7517,3805.83
700.5017,3721.27
700.2517,3623.28
700.0017,3518.5
699.8767,3470.17