File: XPS-C1s.csv
Point6
3
C1s
1
297.8767,1203.33
297.7517,1189.37
297.6267,1134.05
297.5017,1110.87
297.3767,1108.57
297.2517,1073.97
297.1267,1093.81
297.0017,1098.17
296.8767,1098.81
296.7517,1093.49
296.6267,1098.17
296.5017,1077.22
296.3767,1095.63
296.2517,1104.29
296.1267,1127.06
296.0017,1127.46
295.8767,1169.05
295.7517,1173.49
295.6267,1210.32
295.5017,1212.22
295.3767,1212.54
295.2517,1210.56
295.1267,1238.97
295.0017,1250
294.8767,1298.17
294.7517,1362.06
294.6267,1456.43
294.5017,1542.94
294.3767,1638.49
294.2517,1702.62
294.1267,1739.84
294.0017,1845.87
293.8767,1950.32
293.7517,2089.68
293.6267,2292.3
293.5017,2475.56
293.3767,2649.05
293.2517,2907.78
293.1267,3141.67
293.0017,3472.46
292.8767,3878.97
292.7517,4325.4
292.6267,4881.98
292.5017,5537.78
292.3767,6228.09
292.2517,6955.4
292.1267,7732.06
292.0017,8503.57
291.8767,9173.17
291.7517,9683.57
291.6267,9989.21
291.5017,9972.7
291.3767,9657.86
291.2517,9126.19
291.1267,8380.95
291.0017,7483.49
290.8767,6517.7
290.7517,5562.46
290.6267,4663.17
290.5017,3936.11
290.3767,3361.03
290.2517,2917.78
290.1267,2583.89
290.0017,2386.19
289.8767,2256.9
289.7517,2207.62
289.6267,2100.79
289.5017,2090.4
289.3767,2092.54
289.2517,2099.76
289.1267,2089.52
289.0017,2101.19
288.8767,2051.59
288.7517,2035.71
288.6267,2003.02
288.5017,1948.49
288.3767,1886.9
288.2517,1849.68
288.1267,1807.14
288.0017,1796.27
287.8767,1775.79
287.7517,1756.35
287.6267,1730.48
287.5017,1722.22
287.3767,1716.27
287.2517,1727.46
287.1267,1758.65
287.0017,1796.11
286.8767,1794.6
286.7517,1778.25
286.6267,1763.81
286.5017,1749.29
286.3767,1792.22
286.2517,1805.63
286.1267,1783.1
286.0017,1774.68
285.8767,1790.48
285.7517,1828.57
285.6267,1928.81
285.5017,2001.35
285.3767,2050.4
285.2517,2149.92
285.1267,2245.4
285.0017,2350.08
284.8767,2469.13
284.7517,2473.57
284.6267,2456.51
284.5017,2387.46
284.3767,2305.32
284.2517,2220.63
284.1267,2119.05
284.0017,1978.41
283.8767,1848.17
283.7517,1681.19
283.6267,1558.89
283.5017,1421.43
283.3767,1296.98
283.2517,1208.17
283.1267,1108.97
283.0017,1054.68
282.8767,1028.97
282.7517,998.2539
282.6267,980.2381
282.5017,970.7936
282.3767,957.3809
282.2517,941.5079
282.1267,937.0634
282.0017,934.3650
281.8767,922.6984
281.7517,920.9523
281.6267,927.0634
281.5017,936.4285
281.3767,926.9841
281.2517,931.1904
281.1267,919.7619
281.0017,923.6508
280.8767,928.2539
280.7517,941.7460
280.6267,927.7777
280.5017,922.4603
280.3767,924.4444
280.2517,922.5396
280.1267,924.4444
280.0017,928.2539
279.8767,928.8095
279.7517,927.8571
279.6267,940.7936
279.5017,930.7936
279.3767,933.7301
279.2517,941.9841
279.1267,922.8571
279.0017,885.4761
278.8767,898.7301
278.7517,904.1270
278.6267,923.8889
278.5017,932.0635
278.3767,931.3492
278.2517,902.6190
278.1267,908.0952
278.0017,899.7619
277.8767,863.3333