File: XPS-O1s.csv
Point6
3
O1s
1
544.8767,1758.89
544.7517,1755.32
544.6267,1757.65
544.5017,1742.99
544.3767,1754.95
544.2517,1742.65
544.1267,1723.49
544.0017,1724.92
543.8767,1734.68
543.7517,1723.99
543.6267,1735.13
543.5017,1706.67
543.3767,1696.16
543.2517,1708.55
543.1267,1732.12
543.0017,1727.14
542.8767,1728.68
542.7517,1705.32
542.6267,1701.3
542.5017,1709.26
542.3767,1705.95
542.2517,1702.38
542.1267,1711.9
542.0017,1689.97
541.8767,1665.79
541.7517,1659.66
541.6267,1660.71
541.5017,1681.75
541.3767,1680.42
541.2517,1682.01
541.1267,1666.38
541.0017,1671.8
540.8767,1680.16
540.7517,1675.9
540.6267,1651.27
540.5017,1646.75
540.3767,1623.73
540.2517,1632.14
540.1267,1639.87
540.0017,1650.19
539.8767,1662.14
539.7517,1662.28
539.6267,1649.66
539.5017,1648.15
539.3767,1652.49
539.2517,1667.83
539.1267,1670.05
539.0017,1659.87
538.8767,1636.14
538.7517,1614.63
538.6267,1612.62
538.5017,1627.04
538.3767,1641.14
538.2517,1651.3
538.1267,1637.96
538.0017,1644.39
537.8767,1661.72
537.7517,1659.68
537.6267,1653.7
537.5017,1661.43
537.3767,1635.26
537.2517,1633.12
537.1267,1651.69
537.0017,1653.84
536.8767,1657.17
536.7517,1679.34
536.6267,1661.43
536.5017,1657.3
536.3767,1657.65
536.2517,1653.04
536.1267,1636.83
536.0017,1649.5
535.8767,1648.04
535.7517,1660.4
535.6267,1686.11
535.5017,1682.41
535.3767,1682.96
535.2517,1706.75
535.1267,1703.55
535.0017,1709.05
534.8767,1735.58
534.7517,1730.34
534.6267,1723.65
534.5017,1736.3
534.3767,1741.9
534.2517,1759.63
534.1267,1787.09
534.0017,1797.54
533.8767,1799.18
533.7517,1820.05
533.6267,1836.93
533.5017,1869.07
533.3767,1891.77
533.2517,1905.58
533.1267,1913.89
533.0017,1943.23
532.8767,1972.33
532.7517,2024.31
532.6267,2074.1
532.5017,2114.97
532.3767,2172.33
532.2517,2228.57
532.1267,2305.95
532.0017,2376.75
531.8767,2467.38
531.7517,2567.17
531.6267,2679.52
531.5017,2746.88
531.3767,2824.42
531.2517,2868.65
531.1267,2935.03
531.0017,3008.76
530.8767,3087.17
530.7517,3174.31
530.6267,3272.14
530.5017,3358.31
530.3767,3429.13
530.2517,3452.33
530.1267,3426.22
530.0017,3375.9
529.8767,3268.25
529.7517,3123.15
529.6267,2928.2
529.5017,2720.58
529.3767,2495.58
529.2517,2298.94
529.1267,2110.13
529.0017,1958.89
528.8767,1840.77
528.7517,1767.22
528.6267,1717.3
528.5017,1672.17
528.3767,1624.52
528.2517,1588.86
528.1267,1568.36
528.0017,1550.32
527.8767,1557.01
527.7517,1558.89
527.6267,1557.88
527.5017,1562.12
527.3767,1541.08
527.2517,1517.8
527.1267,1521.43
527.0017,1518.1
526.8767,1518.57
526.7517,1528.07
526.6267,1523.2
526.5017,1537.41
526.3767,1554.76
526.2517,1564.37
526.1267,1553.28
526.0017,1537.25
525.8767,1527.91
525.7517,1532.41
525.6267,1522.88
525.5017,1527.62
525.3767,1510.13
525.2517,1518.84
525.1267,1530.98
525.0017,1505.32
524.8767,1466.11